time (s)	coil I (A)	last det (V)	int current (uC)
75111.266077	1.413560	-21.386719	-612.304687
75111.268077	0.905614	-21.386719	-612.304687
75111.270079	0.902647	9.929113	0.094713
75112.304563	0.514279	154.785156	-1.953125
75112.306565	0.834797	154.785156	-1.953125
75112.308563	0.905239	154.785156	-1.953125
75112.310565	0.902258	9.924833	0.105356
75113.336622	0.492448	-7.226562	-578.515625
75113.338626	0.820194	-7.226562	-578.515625
75113.342622	0.902032	-7.226562	-578.515625
75113.344625	0.900032	9.900355	0.104956
75114.386687	0.748035	158.105469	2.832031
75114.388689	0.904567	158.105469	2.832031
75114.390689	0.902088	9.922972	0.112930
75115.419289	0.806965	-8.105469	-589.941406
75115.421290	0.905891	-8.105469	-589.941406
75115.427291	0.900740	9.908145	0.099160
75116.466259	0.542175	153.125000	2.832031
75116.470259	0.904334	153.125000	2.832031
75116.472262	0.901474	153.125000	2.832031
75116.474261	0.899730	9.897032	0.111003
75117.498266	0.508263	-7.617187	-599.218750
75117.500270	0.830783	-7.617187	-599.218750
75117.502269	0.905074	-7.617187	-599.218750
75117.504269	0.902071	9.922777	0.103750
75118.548813	0.827179	154.296875	7.910156
75118.552813	0.901629	154.296875	7.910156
75118.554815	0.899722	9.896943	0.103313
75119.571716	0.660009	-0.976562	-592.773437
75119.573717	0.895820	-0.976562	-592.773437
75119.577716	0.900616	-0.976562	-592.773437
75119.579717	0.899084	9.889924	0.339070
75120.627719	0.529490	152.343750	8.691406
75120.629719	0.843861	152.343750	8.691406
75120.631720	0.904500	152.343750	8.691406
75120.633720	0.901579	9.917371	0.095730
75121.653772	0.849086	4.394531	-585.742187
75121.655775	0.904385	4.394531	-585.742187
75121.657773	0.901514	9.916654	0.121054
75122.708336	0.502879	146.484375	6.445312
75122.710339	0.827231	146.484375	6.445312
75122.712339	0.904807	146.484375	6.445312
75122.714339	0.901733	9.919064	0.093625
75123.732334	0.501942	0.195312	-602.050781
75123.734337	0.516292	0.195312	-602.050781
75123.736337	0.904680	0.195312	-602.050781
75123.738334	0.901586	9.917442	0.126070
75124.788322	0.365173	142.675781	3.808594
75124.790325	0.713796	142.675781	3.808594
75124.792325	0.905090	142.675781	3.808594
75124.794323	0.904505	9.949550	0.096372
75125.816332	0.903534	3.906250	-595.214844
75125.818334	0.903857	9.942425	0.577214
75126.870895	0.680257	142.480469	3.417969
75126.872901	0.899777	142.480469	3.417969
75126.874898	0.903065	142.480469	3.417969
75126.876898	0.900746	9.908207	0.401623
75127.894921	0.683820	-5.273437	-620.117187
75127.896922	0.900547	-5.273437	-620.117187
75127.898922	0.903405	-5.273437	-620.117187
75127.900923	0.901031	9.911336	0.437761
75128.942950	0.588136	151.367187	8.984375
75128.944960	0.873456	151.367187	8.984375
75128.946967	0.903915	151.367187	8.984375
75128.948964	0.901274	9.914012	0.111387
75129.975552	0.658906	2.343750	-600.000000
75129.977553	0.895184	2.343750	-600.000000
75129.979554	0.902599	2.343750	-600.000000
75129.981555	0.900090	9.900993	0.119998
75131.024112	0.654201	154.785156	9.277344
75131.026113	0.894417	154.785156	9.277344
75131.028113	0.903012	154.785156	9.277344
75131.030114	0.900557	9.906125	0.309741
75132.058143	0.888598	-7.324219	-621.582031
75132.060145	0.904134	-7.324219	-621.582031
75132.062145	0.901626	9.917885	0.188885
75133.106173	0.846513	155.957031	6.347656
75133.108174	0.904131	155.957031	6.347656
75133.110173	0.901115	9.912267	0.117874
75134.136763	0.602811	-11.035156	-627.148437
75134.138765	0.879104	-11.035156	-627.148437
75134.140764	0.903642	-11.035156	-627.148437
75134.142765	0.903563	9.939198	0.107940
75135.184890	1.760585	156.250000	2.148437
75135.186892	0.841480	156.250000	2.148437
75135.188892	0.904455	156.250000	2.148437
75135.190890	0.901474	9.916210	0.114017
75136.208937	0.534624	-5.273437	-607.519531
75136.210940	0.846959	-5.273437	-607.519531
75136.212941	0.904700	-5.273437	-607.519531
75136.214939	0.901831	9.920136	0.122229
75137.264963	0.404771	164.550781	3.515625
75137.266965	0.750309	164.550781	3.515625
75137.268967	0.906424	164.550781	3.515625
75137.270966	0.903920	9.943116	0.115600
75138.288996	0.410810	-4.296875	-598.828125
75138.290998	0.755594	-4.296875	-598.828125
75138.292996	0.905954	-4.296875	-598.828125
75138.294997	0.903433	9.937763	0.122164
75139.345095	0.289863	158.203125	-4.492187
75139.347096	0.642279	158.203125	-4.492187
75139.349096	0.891394	158.203125	-4.492187
75139.351097	0.902951	158.203125	-4.492187
75139.353098	0.900462	9.905079	0.113556
75140.381144	0.884166	-18.359375	-631.347656
75140.383145	0.903329	-18.359375	-631.347656
75140.385145	0.900758	9.908340	0.130035
75141.419657	0.639996	161.718750	-5.761719
75141.421659	0.890652	161.718750	-5.761719
75141.423659	0.902801	161.718750	-5.761719
75141.425659	0.900322	9.903545	0.122763
75142.459688	0.578369	-12.402344	-618.164062
75142.461691	0.869003	-12.402344	-618.164062
75142.463690	0.903677	-12.402344	-618.164062
75142.465689	0.900940	9.910343	0.103687
75143.499728	0.519736	159.082031	-6.738281
75143.501731	0.837717	159.082031	-6.738281
75143.503731	0.904089	159.082031	-6.738281
75143.505731	0.901095	9.912045	0.106808
75144.539739	0.452278	-7.128906	-615.136719
75144.541742	0.791063	-7.128906	-615.136719
75144.543741	0.909730	-7.128906	-615.136719
75144.545741	0.906342	9.969765	0.122099
75145.571782	0.428086	163.281250	-1.367187
75145.573785	0.770664	163.281250	-1.367187
75145.575783	0.906292	163.281250	-1.367187
75145.577784	0.903381	9.937196	0.121109
75146.620720	0.490093	9.960937	-588.867187
75146.624720	0.904711	9.960937	-588.867187
75146.626722	0.901596	9.960937	-588.867187
75146.628724	0.899667	9.896332	0.139880
75147.653249	1.437005	149.316406	-2.539062
75147.655251	0.855980	149.316406	-2.539062
75147.657252	0.904502	149.316406	-2.539062
75147.659253	0.901657	9.918231	0.099087
75148.703269	0.791301	17.187500	-585.644531
75148.705272	0.906042	17.187500	-585.644531
75148.707270	0.905995	9.965945	0.136040
75149.733838	0.519822	151.855469	5.566406
75149.735840	0.837651	151.855469	5.566406
75149.737840	0.903933	151.855469	5.566406
75149.739841	0.900893	9.909821	0.091285
75150.783866	0.766879	5.566406	-622.851562
75150.785867	0.906181	5.566406	-622.851562
75150.787867	0.903331	9.936638	0.124583
75151.814352	0.474981	153.027344	9.472656
75151.816356	0.807572	153.027344	9.472656
75151.818356	0.904875	153.027344	9.472656
75151.820354	0.901635	9.917982	0.097321
75152.854329	0.402775	11.230469	-605.566406
75152.856328	0.748496	11.230469	-605.566406
75152.858329	0.905844	11.230469	-605.566406
75152.860328	0.903473	9.938206	0.134982
75153.904325	0.650659	152.539062	6.445312
75153.906325	0.893730	152.539062	6.445312
75153.908325	0.903197	152.539062	6.445312
75153.910326	0.900657	9.907232	0.269539
75154.927244	0.463436	13.867187	-591.210937
75154.929246	0.799108	13.867187	-591.210937
75154.931244	0.905905	13.867187	-591.210937
75154.933245	0.902811	9.930922	0.148678
75155.983793	0.424301	156.152344	4.003906
75155.985790	0.767336	156.152344	4.003906
75155.987791	0.906016	156.152344	4.003906
75155.991788	0.901070	9.911770	0.105244
75157.007823	0.430549	5.371094	-603.027344
75157.009826	0.772636	5.371094	-603.027344
75157.011826	0.905824	5.371094	-603.027344
75157.013832	0.902861	9.931471	0.128543
75158.064320	0.380263	160.253906	0.683594
75158.066320	0.727856	160.253906	0.683594
75158.068320	0.733726	160.253906	0.683594
75158.070321	0.903758	9.941343	0.110007
75159.088337	0.384250	-1.074219	-613.085937
75159.090338	0.731533	-1.074219	-613.085937
75159.094337	0.903735	-1.074219	-613.085937
75159.096340	0.901532	9.916857	0.123292
75160.148363	0.879216	159.863281	-3.515625
75160.150366	0.903545	159.863281	-3.515625
75160.152365	0.900933	9.910263	0.105945
75161.170375	0.604270	-3.027344	-614.550781
75161.172377	0.879678	-3.027344	-614.550781
75161.174378	0.903698	-3.027344	-614.550781
75161.176378	0.901085	9.911939	0.114390
75162.218386	0.507468	170.996094	0.195312
75162.220387	0.830065	170.996094	0.195312
75162.222389	0.904587	170.996094	0.195312
75162.226386	0.899657	9.896225	0.132055
75163.250468	0.488337	-3.320312	-614.062500
75163.252468	0.817057	-3.320312	-614.062500
75163.254469	0.904434	-3.320312	-614.062500
75163.256468	0.901246	9.913702	0.118482
75164.298493	0.390891	173.046875	0.000000
75164.300492	0.737578	173.046875	0.000000
75164.302494	0.905333	173.046875	0.000000
75164.304493	0.903304	9.936345	0.134103
75165.331090	0.464403	0.292969	-603.906250
75165.333093	0.799693	0.292969	-603.906250
75165.335094	0.905362	0.292969	-603.906250
75165.337094	0.902258	9.924833	0.109254
75166.380005	0.521233	173.925781	-0.195312
75166.382006	0.838650	173.925781	-0.195312
75166.386004	0.901191	173.925781	-0.195312
75166.388006	0.899350	9.892849	0.129003
75167.413006	0.662614	-0.781250	-610.644531
75167.415008	0.896240	-0.781250	-610.644531
75167.417008	0.902880	-0.781250	-610.644531
75167.419006	0.900396	9.904361	0.336098
75168.461961	0.726312	165.722656	-4.589844
75168.463963	0.904408	165.722656	-4.589844
75168.465964	0.903058	9.933634	0.120725
75169.483925	0.372816	-1.074219	-614.257812
75169.485926	0.720828	-1.074219	-614.257812
75169.487927	0.904499	-1.074219	-614.257812
75169.489927	0.903456	9.938011	0.134117
75170.543939	0.874456	172.070312	1.562500
75170.545938	0.903694	172.070312	1.562500
75170.547939	0.901018	9.911194	0.115967
75171.565993	0.600660	4.980469	-603.808594
75171.567994	0.878063	4.980469	-603.808594
75171.569993	0.903339	4.980469	-603.808594
75171.571993	0.903228	9.935503	0.133612
75172.622536	0.561338	161.914062	-1.660156
75172.624541	0.861029	161.914062	-1.660156
75172.626540	0.904020	161.914062	-1.660156
75172.628539	0.901266	9.913923	0.112254
75173.646624	0.576518	3.125000	-618.066406
75173.648625	0.868088	3.125000	-618.066406
75173.650624	0.903482	3.125000	-618.066406
75173.652625	0.900720	9.907915	0.128581
75174.702727	0.462136	165.820312	5.468750
75174.704729	0.798223	165.820312	5.468750
75174.706729	0.803245	165.820312	5.468750
75174.708728	0.903094	9.934032	0.104468
75175.726754	0.467378	9.863281	-610.449219
75175.728758	0.802147	9.863281	-610.449219
75175.730756	0.905903	9.863281	-610.449219
75175.732756	0.902705	9.929751	0.138849
75176.774768	0.365096	159.765625	4.980469
75176.776770	0.713450	159.765625	4.980469
75176.778772	0.903848	159.765625	4.980469
75176.780771	0.904277	9.947042	0.112823
75177.808773	0.682339	24.023437	-582.812500
75177.810776	0.899836	24.023437	-582.812500
75177.812775	0.902884	24.023437	-582.812500
75177.814774	0.900460	9.905062	0.457052
75178.856820	0.591365	150.585937	0.585937
75178.858820	0.874431	150.585937	0.585937
75178.860820	0.903354	150.585937	0.585937
75178.862820	0.900721	9.907932	0.096664
75179.896834	0.528429	11.230469	-621.191406
75179.900833	0.904426	11.230469	-621.191406
75179.902836	0.901593	11.230469	-621.191406
75179.904834	0.899787	9.897653	0.139276
75180.930879	0.826752	159.375000	2.929687
75180.932882	0.904552	159.375000	2.929687
75180.934881	0.901493	9.916423	0.103106
75181.977397	0.492021	22.558594	-589.648437
75181.979399	0.819542	22.558594	-589.648437
75181.983397	0.901230	22.558594	-589.648437
75181.985400	0.899378	9.893159	0.146085
75183.010309	0.617832	164.941406	-0.292969
75183.012310	0.884251	164.941406	-0.292969
75183.014312	0.903272	164.941406	-0.292969
75183.016316	0.900682	9.907507	0.104312
75184.058869	0.614195	16.894531	-596.582031
75184.060872	0.882885	16.894531	-596.582031
75184.062872	0.903206	16.894531	-596.582031
75184.064871	0.900581	9.906390	0.153517
75185.089870	0.407069	172.363281	-4.394531
75185.091871	0.752131	172.363281	-4.394531
75185.093869	0.757559	172.363281	-4.394531
75185.095871	0.902973	9.932703	0.108018
75186.141823	0.892394	8.886719	-606.152344
75186.143825	0.903328	8.886719	-606.152344
75186.145825	0.900801	9.908810	0.275613
75187.172425	0.717752	176.757812	-6.347656
75187.174428	0.903916	176.757812	-6.347656
75187.176430	0.903042	9.933465	0.115041
75188.210964	0.397361	5.273437	-606.152344
75188.212965	0.743517	5.273437	-606.152344
75188.214965	0.904773	5.273437	-606.152344
75188.216965	0.902488	9.927367	0.132734
75189.250982	0.330075	175.976562	-8.984375
75189.252982	0.680318	175.976562	-8.984375
75189.254982	0.899878	175.976562	-8.984375
75189.260980	0.899429	175.976562	-8.984375
75189.264981	0.897503	9.872537	0.131027
75190.292993	0.615145	-6.835937	-637.890625
75190.294994	0.883290	-6.835937	-637.890625
75190.296993	0.903138	-6.835937	-637.890625
75190.298995	0.900563	9.906196	0.147555
75191.333011	0.553019	177.636719	-9.082031
75191.335013	0.856764	177.636719	-9.082031
75191.337014	0.903940	177.636719	-9.082031
75191.339012	0.903815	9.941964	0.133213
75192.365025	0.522376	9.667969	-591.992187
75192.367026	0.536146	9.667969	-591.992187
75192.369028	0.903758	9.667969	-591.992187
75192.371026	0.900770	9.908473	0.131336
75193.415073	0.770549	184.375000	-5.468750
75193.417074	0.904346	184.375000	-5.468750
75193.419073	0.901410	9.915510	0.135964
75194.445631	0.492696	-2.832031	-628.710937
75194.447633	0.819907	-2.832031	-628.710937
75194.449632	0.904081	-2.832031	-628.710937
75194.451634	0.900947	9.910414	0.128175
75195.495643	0.739900	183.300781	-4.785156
75195.497645	0.904705	183.300781	-4.785156
75195.499644	0.902561	9.928174	0.137139
75196.526196	1.555053	-3.417969	-631.640625
75196.528197	0.794546	-3.417969	-631.640625
75196.530197	0.905974	-3.417969	-631.640625
75196.534196	0.900828	9.909111	0.121555
75197.576247	0.712263	184.863281	-4.003906
75197.578249	0.902743	184.863281	-4.003906
75197.580250	0.902189	9.924080	0.559976
75198.609175	0.820016	-5.078125	-638.281250
75198.613175	0.901260	-5.078125	-638.281250
75198.615178	0.899456	9.894019	0.116756
75199.657209	0.744641	184.472656	-4.589844
75199.659211	0.904213	184.472656	-4.589844
75199.661211	0.901845	9.920296	0.131247
75200.687825	0.474041	6.542969	-607.226562
75200.689828	0.806877	6.542969	-607.226562
75200.691830	0.904929	6.542969	-607.226562
75200.693835	0.901748	9.919223	0.113038
75201.737853	0.723251	177.636719	-8.886719
75201.739854	0.903918	177.636719	-8.886719
75201.741854	0.902691	9.929601	0.127002
75202.767914	0.352626	-2.148437	-628.710937
75202.769918	0.701683	-2.148437	-628.710937
75202.771915	0.901898	-2.148437	-628.710937
75202.773916	0.902341	9.925755	0.116752
75203.817902	0.599504	184.570312	-6.542969
75203.819904	0.877839	184.570312	-6.542969
75203.821903	0.903592	184.570312	-6.542969
75203.823903	0.900956	9.910511	0.121348
75204.850890	0.737055	4.589844	-611.816406
75204.854890	0.902885	4.589844	-611.816406
75204.856893	0.900711	9.907817	0.677903
75205.888885	0.320238	184.667969	-8.593750
75205.890887	0.670955	184.667969	-8.593750
75205.892888	0.898440	184.667969	-8.593750
75205.894886	0.903454	184.667969	-8.593750
75205.896887	0.901091	9.912000	0.145284
75206.930950	0.616198	-3.808594	-636.523437
75206.932952	0.884070	-3.808594	-636.523437
75206.934951	0.903882	-3.808594	-636.523437
75206.936952	0.901287	9.914163	0.140587
75207.971053	0.567386	181.250000	-10.742187
75207.973055	0.864233	181.250000	-10.742187
75207.975056	0.904306	181.250000	-10.742187
75207.981053	0.898739	9.886131	0.130067
75209.013057	0.826471	8.691406	-604.980469
75209.015060	0.904455	8.691406	-604.980469
75209.017060	0.901391	9.915306	0.122819
75210.043075	0.471380	183.300781	-9.082031
75210.045077	0.804837	183.300781	-9.082031
75210.047077	0.905016	183.300781	-9.082031
75210.049076	0.901884	9.920730	0.144678
75211.093073	0.716967	9.082031	-611.621094
75211.095075	0.903380	9.082031	-611.621094
75211.097075	0.902542	9.927961	0.132619
75212.123591	0.426197	176.464844	-10.839844
75212.125592	0.768944	176.464844	-10.839844
75212.127593	0.906277	176.464844	-10.839844
75212.129592	0.903447	9.937914	0.129003
75213.173635	0.681940	12.500000	-613.378906
75213.175639	0.899588	12.500000	-613.378906
75213.177641	0.902645	12.500000	-613.378906
75213.179641	0.900221	9.902429	0.141030
75214.205626	0.647522	177.246094	-5.371094
75214.207628	0.892594	177.246094	-5.371094
75214.209628	0.902762	177.246094	-5.371094
75214.211627	0.900232	9.902553	0.282810
75215.254602	0.716952	21.289062	-599.707031
75215.258602	0.901877	21.289062	-599.707031
75215.260604	0.899664	9.896305	0.150555
75216.285154	0.432270	165.527344	-6.054687
75216.287156	0.773923	165.527344	-6.054687
75216.289165	0.905453	165.527344	-6.054687
75216.291168	0.902545	9.927997	0.111084
75217.333189	0.336013	23.242187	-599.316406
75217.335189	0.685840	23.242187	-599.316406
75217.337199	0.901659	23.242187	-599.316406
75217.339197	0.904069	23.242187	-599.316406
75217.343195	0.900201	9.902207	0.148530
75218.367721	0.743867	170.312500	1.171875
75218.369723	0.904741	170.312500	1.171875
75218.371726	0.902517	9.927687	0.109326
75219.407755	0.683506	24.023437	-596.777344
75219.409759	0.900154	24.023437	-596.777344
75219.411758	0.903010	24.023437	-596.777344
75219.413757	0.900635	9.906984	0.159395
75220.449731	0.883027	172.070312	3.906250
75220.451733	0.903254	172.070312	3.906250
75220.453734	0.900701	9.907711	0.140045
75221.489742	0.854636	18.750000	-608.105469
75221.491744	0.903739	18.750000	-608.105469
75221.493743	0.900823	9.909049	0.140883
75222.529810	0.821667	173.925781	2.734375
75222.531812	0.904571	173.925781	2.734375
75222.533812	0.901416	9.915572	0.121741
75223.560327	0.548681	12.792969	-619.921875
75223.562329	0.854112	12.792969	-619.921875
75223.564329	0.903455	12.792969	-619.921875
75223.566329	0.900644	9.907082	0.155686
75224.608343	0.452750	176.074219	0.878906
75224.610346	0.790729	176.074219	0.878906
75224.612344	0.905840	176.074219	0.878906
75224.614346	0.902777	9.930550	0.133785
75225.640408	0.430912	19.335937	-595.019531
75225.642412	0.772898	19.335937	-595.019531
75225.644412	0.906346	19.335937	-595.019531
75225.646409	0.903387	9.937258	0.137739
75226.692442	0.900280	183.300781	1.367187
75226.694444	0.903210	183.300781	1.367187
75226.696444	0.900809	9.908898	0.140905
75227.722999	0.745370	15.039062	-603.125000
75227.725001	0.905106	15.039062	-603.125000
75227.727003	0.902800	9.930797	0.133407
75228.771984	0.805128	185.937500	-0.390625
75228.773986	0.905873	185.937500	-0.390625
75228.775986	0.902802	9.930824	0.138558
75229.794537	0.566251	11.328125	-611.523437
75229.796538	0.863130	11.328125	-611.523437
75229.798539	0.903405	11.328125	-611.523437
75229.800539	0.900606	9.906665	0.153814
75230.850573	0.440487	183.203125	-3.613281
75230.852573	0.780851	183.203125	-3.613281
75230.856572	0.902815	183.203125	-3.613281
75230.858575	0.900809	9.908898	0.143809
75231.874610	0.446926	8.496094	-620.019531
75231.876612	0.786105	8.496094	-620.019531
75231.878612	0.906396	8.496094	-620.019531
75231.880613	0.903342	9.936762	0.150667
75232.932657	0.667974	181.054687	-4.980469
75232.934659	0.897396	181.054687	-4.980469
75232.936659	0.902970	181.054687	-4.980469
75232.938660	0.900539	9.905930	0.137465
75233.954729	0.330717	10.449219	-616.503906
75233.956730	0.680772	10.449219	-616.503906
75233.958734	0.899289	10.449219	-616.503906
75233.960733	0.902487	10.449219	-616.503906
75233.962734	0.900054	9.900595	0.154647
75235.012707	0.544034	187.402344	0.097656
75235.014707	0.851831	187.402344	0.097656
75235.016708	0.904005	187.402344	0.097656
75235.018708	0.901134	9.912478	0.129303
75236.036726	0.546373	15.625000	-604.980469
75236.038727	0.852899	15.625000	-604.980469
75236.040728	0.903593	15.625000	-604.980469
75236.042727	0.900701	9.907711	0.147570
75237.093300	0.515080	178.320312	-3.515625
75237.095304	0.834811	178.320312	-3.515625
75237.097303	0.904264	178.320312	-3.515625
75237.099304	0.901243	9.913675	0.123858
75238.117336	0.520659	13.574219	-615.136719
75238.119335	0.838338	13.574219	-615.136719
75238.121337	0.904289	13.574219	-615.136719
75238.123336	0.901263	9.913897	0.152714
75239.175452	2.186364	171.972656	-4.394531
75239.177453	0.904426	171.972656	-4.394531
75239.179453	0.901829	9.920118	0.743667
75240.197434	0.403282	22.460937	-595.703125
75240.199435	0.748632	22.460937	-595.703125
75240.201433	0.904381	22.460937	-595.703125
75240.203435	0.901914	9.921049	0.158442
75241.249445	0.893713	177.148437	0.976562
75241.251447	0.903095	177.148437	0.976562
75241.253448	0.900563	9.906196	0.298380
75242.278038	0.373949	26.562500	-588.867187
75242.280040	0.721715	26.562500	-588.867187
75242.282039	0.903092	26.562500	-588.867187
75242.284040	0.901865	9.920517	0.168294
75243.330085	0.888013	174.023437	-0.488281
75243.332088	0.903108	174.023437	-0.488281
75243.334086	0.900550	9.906045	0.203161
75244.368112	0.567191	18.164062	-615.820312
75244.370113	0.863440	18.164062	-615.820312
75244.372114	0.903165	18.164062	-615.820312
75244.374115	0.900363	9.903997	0.151915
75245.400186	0.549209	174.707031	-2.148437
75245.404186	0.903431	174.707031	-2.148437
75245.406187	0.900550	174.707031	-2.148437
75245.408189	0.898808	9.886893	0.120155
75246.450214	0.791653	26.757812	-594.531250
75246.454214	0.901872	26.757812	-594.531250
75246.456217	0.899878	9.898654	0.154627
75247.482776	0.837060	181.542969	-3.320312
75247.484778	0.904012	181.542969	-3.320312
75247.486778	0.900997	9.910963	0.113630
75248.529734	0.581409	15.527344	-623.339844
75248.531736	0.870207	15.527344	-623.339844
75248.533734	0.903418	15.527344	-623.339844
75248.535736	0.900753	9.908287	0.151989
75249.561695	2.050295	183.203125	-8.496094
75249.563697	0.850482	183.203125	-8.496094
75249.565699	0.903692	183.203125	-8.496094
75249.567697	0.900718	9.907897	0.117007
75250.611756	0.791014	18.750000	-609.277344
75250.613759	0.905830	18.750000	-609.277344
75250.615758	0.902751	9.930265	0.141704
75251.634342	0.553017	192.285156	-9.375000
75251.636344	0.856747	192.285156	-9.375000
75251.640340	0.901031	192.285156	-9.375000
75251.642342	0.899342	9.892760	0.148631
75252.684401	0.800471	19.726562	-599.414062
75252.686403	0.904715	19.726562	-599.414062
75252.688402	0.901523	9.916750	0.162741
75253.722923	0.489596	195.410156	-11.328125
75253.724923	0.817848	195.410156	-11.328125
75253.726924	0.904381	195.410156	-11.328125
75253.728924	0.904252	9.946768	0.138790
75254.763472	0.517893	10.839844	-619.335937
75254.765474	0.836379	10.839844	-619.335937
75254.767474	0.903869	10.839844	-619.335937
75254.771473	0.899049	9.889544	0.141407
75255.803537	0.463006	193.457031	-13.867187
75255.805539	0.798473	193.457031	-13.867187
75255.807539	0.904943	193.457031	-13.867187
75255.809540	0.901896	9.920854	0.140588
75256.843580	0.402502	6.835937	-627.246094
75256.845580	0.747932	6.835937	-627.246094
75256.847579	0.905285	6.835937	-627.246094
75256.849580	0.902992	9.932916	0.132971
75257.885643	0.694536	195.410156	-13.476562
75257.887648	0.901437	195.410156	-13.476562
75257.889647	0.902475	195.410156	-13.476562
75257.891649	0.900163	9.901791	0.141402
75258.917678	0.666974	12.402344	-611.132812
75258.919678	0.896648	12.402344	-611.132812
75258.921681	0.902308	12.402344	-611.132812
75258.923680	0.899867	9.898539	0.152677
75259.968224	0.710224	200.781250	-11.914062
75259.970224	0.903265	200.781250	-11.914062
75259.972224	0.900810	9.908907	0.356556
75260.996782	0.377909	16.601562	-600.390625
75260.998783	0.725402	16.601562	-600.390625
75261.000782	0.732015	16.601562	-600.390625
75261.002784	0.903286	9.936141	0.145310
75262.046768	0.622064	202.929687	-11.621094
75262.048770	0.885416	202.929687	-11.621094
75262.050770	0.902975	202.929687	-11.621094
75262.052770	0.900355	9.903900	0.187502
75263.078807	0.597028	5.175781	-632.226562
75263.080810	0.876461	5.175781	-632.226562
75263.082809	0.903059	5.175781	-632.226562
75263.084811	0.900370	9.904069	0.137476
75264.118875	0.541119	198.828125	-13.378906
75264.120883	0.849947	198.828125	-13.378906
75264.122887	0.903451	198.828125	-13.378906
75264.124889	0.900559	9.906151	0.158327
75265.158889	0.479503	8.789062	-624.316406
75265.160894	0.810754	8.789062	-624.316406
75265.162892	0.904617	8.789062	-624.316406
75265.164894	0.901462	9.916086	0.142344
75266.198927	0.418586	199.707031	-13.476562
75266.200929	0.762204	199.707031	-13.476562
75266.204927	0.902590	199.707031	-13.476562
75266.206929	0.900528	9.905806	0.154678
75267.240935	0.698280	5.664062	-635.839844
75267.242934	0.901463	5.664062	-635.839844
75267.246929	0.899917	9.899088	0.146501
75268.280956	0.636238	198.925781	-13.671875
75268.282959	0.889755	198.925781	-13.671875
75268.284958	0.902981	198.925781	-13.671875
75268.286958	0.900388	9.904273	0.255847
75269.320981	0.574451	11.523437	-620.507812
75269.322983	0.866855	11.523437	-620.507812
75269.324983	0.903041	11.523437	-620.507812
75269.328980	0.898635	9.884988	0.150250
75270.361026	0.515279	201.855469	-12.109375
75270.363030	0.530919	201.855469	-12.109375
75270.365028	0.904070	201.855469	-12.109375
75270.367028	0.901049	9.911539	0.138583
75271.401095	0.462718	18.261719	-606.835937
75271.403097	0.798218	18.261719	-606.835937
75271.405097	0.904891	18.261719	-606.835937
75271.407098	0.901768	9.919444	0.154740
75272.433125	0.433482	200.292969	-10.058594
75272.435127	0.775015	200.292969	-10.058594
75272.437128	0.905922	200.292969	-10.058594
75272.439127	0.902930	9.932233	0.150673
75273.482051	0.495085	24.316406	-595.800781
75273.484053	0.821585	24.316406	-595.800781
75273.486054	0.904173	24.316406	-595.800781
75273.488053	0.901088	9.911964	0.161482
75274.516662	0.861960	191.992187	-9.570312
75274.518665	0.903377	191.992187	-9.570312
75274.520664	0.900546	9.906010	0.132294
75275.563195	0.559437	30.078125	-585.351562
75275.565195	0.859563	30.078125	-585.351562
75275.567194	0.903178	30.078125	-585.351562
75275.569195	0.900324	9.903563	0.161129
75276.594103	0.333481	179.492187	-10.058594
75276.596106	0.683418	179.492187	-10.058594
75276.598104	0.900032	179.492187	-10.058594
75276.600104	0.902913	179.492187	-10.058594
75276.602107	0.900547	9.906018	0.136537
75277.644164	0.594757	29.296875	-587.988281
75277.646168	0.875567	29.296875	-587.988281
75277.648167	0.903064	29.296875	-587.988281
75277.650167	0.900367	9.904042	0.168479
75278.674654	0.291055	179.785156	-6.250000
75278.676657	0.643127	179.785156	-6.250000
75278.678658	0.891817	179.785156	-6.250000
75278.680656	0.903253	179.785156	-6.250000
75278.682656	0.900751	9.908260	0.130697
75279.724701	0.551511	25.292969	-594.140625
75279.726701	0.855624	25.292969	-594.140625
75279.728701	0.903468	25.292969	-594.140625
75279.730701	0.900547	9.906018	0.151444
75280.756715	0.520892	186.230469	-1.757812
75280.758714	0.838453	186.230469	-1.757812
75280.760715	0.904304	186.230469	-1.757812
75280.762714	0.904168	9.945846	0.135699
75281.799301	0.858645	29.589844	-579.199219
75281.801303	0.903316	29.589844	-579.199219
75281.803303	0.900487	9.905354	0.161503
75282.839903	0.875482	186.718750	-2.246094
75282.841906	0.903407	186.718750	-2.246094
75282.843905	0.900674	9.907418	0.137381
75283.869905	0.561350	32.812500	-568.652344
75283.871905	0.860828	32.812500	-568.652344
75283.873905	0.903694	32.812500	-568.652344
75283.875906	0.900951	9.910458	0.173141
75284.917916	0.463554	195.214844	0.683594
75284.919916	0.798867	195.214844	0.683594
75284.921917	0.904748	195.214844	0.683594
75284.923915	0.901525	9.916778	0.145972
75285.951948	0.776138	27.050781	-581.640625
75285.953951	0.905143	27.050781	-581.640625
75285.955954	0.902158	9.923743	0.163225
75287.007959	0.648614	190.917969	-5.566406
75287.009960	0.892600	190.917969	-5.566406
75287.011962	0.902398	190.917969	-5.566406
75287.013960	0.899934	9.899274	0.298459
75288.029962	0.298740	17.285156	-607.812500
75288.031964	0.650375	17.285156	-607.812500
75288.033965	0.893133	17.285156	-607.812500
75288.035965	0.902522	17.285156	-607.812500
75288.037965	0.899977	9.899744	0.160204
75289.088009	0.527422	190.039062	-7.519531
75289.090010	0.842132	190.039062	-7.519531
75289.092011	0.903725	190.039062	-7.519531
75289.094012	0.900807	9.908872	0.131921
75290.112060	0.536488	15.625000	-611.816406
75290.114062	0.847262	15.625000	-611.816406
75290.116062	0.903339	15.625000	-611.816406
75290.118063	0.900361	9.903971	0.148568
75291.160067	0.434884	201.367187	-2.343750
75291.162070	0.775937	201.367187	-2.343750
75291.164069	0.904858	201.367187	-2.343750
75291.166069	0.901860	9.920455	0.160979
75292.186559	0.838376	25.000000	-584.667969
75292.188561	0.903492	25.000000	-584.667969
75292.190561	0.900393	9.904325	0.173912
75293.241073	0.479318	197.753906	-5.273437
75293.243075	0.810447	197.753906	-5.273437
75293.245075	0.904285	197.753906	-5.273437
75293.247073	0.901159	9.912753	0.147805
75294.265111	0.485911	24.316406	-586.230469
75294.267112	0.815352	24.316406	-586.230469
75294.269112	0.904915	24.316406	-586.230469
75294.271114	0.901712	9.918834	0.172580
75295.321690	0.453592	194.042969	-6.250000
75295.323691	0.791622	194.042969	-6.250000
75295.329691	0.902412	194.042969	-6.250000
75295.331701	0.901007	9.911079	0.143993
75296.345729	0.459683	20.507812	-598.144531
75296.347731	0.795939	20.507812	-598.144531
75296.349730	0.905199	20.507812	-598.144531
75296.351729	0.902050	9.922546	0.177338
75297.401820	1.655839	191.210937	-5.859375
75297.403851	0.689039	191.210937	-5.859375
75297.405853	0.901390	191.210937	-5.859375
75297.407854	0.902638	191.210937	-5.859375
75297.409855	0.900284	9.903130	0.143979
75298.427869	0.695739	19.921875	-601.367187
75298.429875	0.901293	19.921875	-601.367187
75298.431875	0.902300	9.925303	0.177686
75299.483906	0.568821	192.285156	-3.613281
75299.485909	0.864561	192.285156	-3.613281
75299.487908	0.903671	192.285156	-3.613281
75299.489907	0.900931	9.910246	0.122939
75300.510410	0.894845	30.566406	-573.339844
75300.512412	0.902444	30.566406	-573.339844
75300.514412	0.900006	9.900063	0.374839
75301.557025	0.663954	190.332031	-3.906250
75301.559025	0.896843	190.332031	-3.906250
75301.561026	0.903329	190.332031	-3.906250
75301.563027	0.900894	9.909838	0.372472
75302.597054	1.726358	24.316406	-593.359375
75302.601055	0.903038	24.316406	-593.359375
75302.603055	0.900367	24.316406	-593.359375
75302.605057	0.898804	9.886840	0.161714
75303.637113	0.547862	184.472656	-7.910156
75303.639115	0.853788	184.472656	-7.910156
75303.641113	0.903658	184.472656	-7.910156
75303.643114	0.900831	9.909138	0.123083
75304.679146	0.815791	23.144531	-599.218750
75304.681150	0.904469	23.144531	-599.218750
75304.683154	0.901304	9.914349	0.166951
75305.709166	0.456925	196.289062	-4.687500
75305.711169	0.793856	196.289062	-4.687500
75305.713167	0.905621	196.289062	-4.687500
75305.715168	0.902531	9.927846	0.140448
75306.760107	0.837331	34.179687	-572.460937
75306.762109	0.903966	34.179687	-572.460937
75306.764107	0.900907	9.909980	0.168837
75307.789034	0.295723	190.625000	-11.914062
75307.791036	0.647418	190.625000	-11.914062
75307.793035	0.892651	190.625000	-11.914062
75307.795035	0.902951	190.625000	-11.914062
75307.797035	0.900439	9.904831	0.144534
75308.839073	0.554866	29.687500	-586.035156
75308.843071	0.903512	29.687500	-586.035156
75308.847071	0.898964	29.687500	-586.035156
75308.849077	0.897835	9.876188	0.174771
75309.871661	0.622629	200.585937	-11.914062
75309.873663	0.885186	200.585937	-11.914062
75309.875662	0.902389	200.585937	-11.914062
75309.877662	0.899786	9.897643	0.197719
75310.920194	0.616312	17.773437	-616.796875
75310.922196	0.883262	17.773437	-616.796875
75310.926194	0.900002	17.773437	-616.796875
75310.928196	0.898506	9.883561	0.171386
75311.952261	0.594297	205.175781	-14.453125
75311.954264	0.875488	205.175781	-14.453125
75311.956262	0.903170	205.175781	-14.453125
75311.958263	0.900507	9.905576	0.139902
75313.000345	0.509632	18.066406	-612.597656
75313.002347	0.830881	18.066406	-612.597656
75313.004349	0.903413	18.066406	-612.597656
75313.006348	0.900326	9.903581	0.149355
75314.032391	0.484188	210.058594	-14.843750
75314.034390	0.813851	210.058594	-14.843750
75314.036390	0.904044	210.058594	-14.843750
75314.038393	0.903927	9.943195	0.146689
75315.072933	0.510583	19.531250	-606.250000
75315.074933	0.831476	19.531250	-606.250000
75315.076932	0.903266	19.531250	-606.250000
75315.078935	0.900200	9.902199	0.164138
75316.112943	0.447331	206.835937	-17.480469
75316.114946	0.786347	206.835937	-17.480469
75316.116945	0.905964	206.835937	-17.480469
75316.118946	0.902959	9.932552	0.147614
75317.152954	0.379651	15.332031	-617.968750
75317.154955	0.726988	15.332031	-617.968750
75317.156956	0.903849	15.332031	-617.968750
75317.158957	0.902281	9.925090	0.157439
75318.194962	0.662692	210.253906	-16.992187
75318.196964	0.895887	210.253906	-16.992187
75318.198964	0.902470	210.253906	-16.992187
75318.200966	0.900040	9.900444	0.375794
75319.237039	0.881513	9.082031	-634.179687
75319.239040	0.903178	9.082031	-634.179687
75319.241042	0.900575	9.906329	0.145814
75320.275016	0.538449	209.179687	-18.066406
75320.277018	0.848432	209.179687	-18.066406
75320.279020	0.903400	209.179687	-18.066406
75320.281019	0.900490	9.905389	0.152056
75321.315078	0.482888	9.863281	-633.105469
75321.317081	0.813061	9.863281	-633.105469
75321.319081	0.904477	9.863281	-633.105469
75321.321080	0.901350	9.914854	0.141984
75322.347112	0.456501	218.359375	-13.964844
75322.349114	0.793554	218.359375	-13.964844
75322.351113	0.905641	218.359375	-13.964844
75322.353115	0.902545	9.927997	0.171416
75323.395112	0.353965	21.289062	-600.488281
75323.397114	0.702828	21.289062	-600.488281
75323.399118	0.902387	21.289062	-600.488281
75323.401121	0.902730	9.930026	0.148745
75324.427127	0.322869	212.304687	-16.796875
75324.429130	0.673179	212.304687	-16.796875
75324.431130	0.900019	212.304687	-16.796875
75324.433129	0.904905	212.304687	-16.796875
75324.435129	0.902670	9.929370	0.173332
75325.479200	0.872115	18.750000	-609.863281
75325.481203	0.903383	18.750000	-609.863281
75325.485200	0.898983	9.888816	0.139888
75326.509785	0.651677	209.863281	-16.601562
75326.511787	0.893539	209.863281	-16.601562
75326.513787	0.902699	209.863281	-16.601562
75326.515789	0.900200	9.902199	0.322141
75327.557898	0.572449	18.652344	-612.304687
75327.559900	0.865875	18.652344	-612.304687
75327.561901	0.902934	18.652344	-612.304687
75327.565899	0.898612	9.884731	0.149521
75328.589928	0.544522	209.570312	-15.332031
75328.593931	0.903166	209.570312	-15.332031
75328.595932	0.900210	209.570312	-15.332031
75328.597933	0.898589	9.884483	0.143381
75329.639989	0.793010	24.609375	-598.242187
75329.641989	0.905030	24.609375	-598.242187
75329.643989	0.901931	9.921244	0.155403
75330.662549	0.553275	211.132812	-10.644531
75330.664549	0.856625	211.132812	-10.644531
75330.666549	0.903568	211.132812	-10.644531
75330.668549	0.900698	9.907676	0.157162
75331.721123	0.837842	25.000000	-597.851562
75331.723124	0.903913	25.000000	-597.851562
75331.725124	0.900875	9.909625	0.159754
75332.745155	0.841021	204.589844	-9.765625
75332.747156	0.904007	204.589844	-9.765625
75332.749155	0.901005	9.911052	0.148813
75333.791201	0.433274	31.738281	-577.441406
75333.793201	0.774727	31.738281	-577.441406
75333.795201	0.905290	31.738281	-577.441406
75333.797200	0.902343	9.925772	0.189041
75334.823249	0.408556	202.539062	-6.542969
75334.825251	0.753301	202.539062	-6.542969
75334.827251	0.905248	202.539062	-6.542969
75334.831249	0.900541	9.905947	0.150080
75335.873300	0.662606	31.640625	-573.730469
75335.875301	0.895929	31.640625	-573.730469
75335.879300	0.900023	31.640625	-573.730469
75335.881302	0.898587	9.884457	0.184279
75336.905346	0.636419	201.757812	-4.101562
75336.907348	0.889448	201.757812	-4.101562
75336.909347	0.902403	201.757812	-4.101562
75336.911348	0.899898	9.898875	0.252726
75337.953882	0.630343	32.617187	-567.187500
75337.955885	0.887818	32.617187	-567.187500
75337.957884	0.902814	32.617187	-567.187500
75337.959883	0.900234	9.902571	0.170865
75338.994466	0.664512	199.804687	-4.785156
75338.996467	0.896281	199.804687	-4.785156
75338.998468	0.902539	199.804687	-4.785156
75339.000470	0.900092	9.901011	0.130745
75340.029029	0.903643	36.035156	-556.445312
75340.033027	0.899845	9.898291	0.179433
75341.075535	0.715243	197.265625	-7.324219
75341.079535	0.902372	197.265625	-7.324219
75341.081536	0.900183	9.902013	0.137771
75342.105568	0.338724	26.562500	-578.125000
75342.107601	0.688284	26.562500	-578.125000
75342.109602	0.901430	26.562500	-578.125000
75342.111603	0.902730	26.562500	-578.125000
75342.113604	0.900413	9.904538	0.169491
75343.155681	0.608888	205.761719	-5.175781
75343.157685	0.881296	205.761719	-5.175781
75343.159687	0.903497	205.761719	-5.175781
75343.161687	0.900991	9.910901	0.140835
75344.178231	0.355605	32.031250	-563.183594
75344.180231	0.704345	32.031250	-563.183594
75344.182232	0.902077	32.031250	-563.183594
75344.188229	0.898543	9.883978	0.187644
75345.236830	0.674330	202.734375	-8.691406
75345.238832	0.898286	202.734375	-8.691406
75345.240831	0.902529	202.734375	-8.691406
75345.242832	0.900208	9.902287	0.146864
75346.258845	0.325565	24.023437	-581.542969
75346.260847	0.675816	24.023437	-581.542969
75346.262846	0.898719	24.023437	-581.542969
75346.264847	0.902864	24.023437	-581.542969
75346.266847	0.900437	9.904804	0.177784
75347.316878	0.548855	211.035156	-6.152344
75347.318879	0.854377	211.035156	-6.152344
75347.320879	0.903736	211.035156	-6.152344
75347.322879	0.900912	9.910033	0.146656
75348.341810	0.712093	29.199219	-568.652344
75348.343813	0.902270	29.199219	-568.652344
75348.345812	0.901673	9.918399	0.174076
75349.397839	0.583796	206.054687	-8.789062
75349.399841	0.870904	206.054687	-8.789062
75349.401841	0.902735	206.054687	-8.789062
75349.403841	0.900030	9.900329	0.138986
75350.421859	0.586660	24.511719	-579.589844
75350.423860	0.872056	24.511719	-579.589844
75350.425861	0.902817	24.511719	-579.589844
75350.427860	0.900055	9.900603	0.167059
75351.471947	0.827137	211.718750	-5.078125
75351.473948	0.904599	211.718750	-5.078125
75351.475947	0.901491	9.916396	0.162966
75352.502516	0.568242	31.738281	-560.449219
75352.504518	0.863986	31.738281	-560.449219
75352.506520	0.903173	31.738281	-560.449219
75352.508522	0.900413	9.904548	0.164520
75353.550510	0.468411	205.273437	-7.714844
75353.552511	0.802507	205.273437	-7.714844
75353.554513	0.904621	205.273437	-7.714844
75353.556512	0.901469	9.916157	0.158380
75354.582542	0.440088	22.851562	-583.203125
75354.584545	0.780266	22.851562	-583.203125
75354.586544	0.904989	22.851562	-583.203125
75354.588544	0.901860	9.920455	0.176555
75355.630562	0.340941	209.765625	-4.199219
75355.634580	0.901108	209.765625	-4.199219
75355.636581	0.902432	209.765625	-4.199219
75355.638582	0.900078	9.900861	0.142492
75356.664585	0.661692	37.304687	-545.996094
75356.666586	0.895388	37.304687	-545.996094
75356.668588	0.902032	37.304687	-545.996094
75356.670588	0.899659	9.896252	0.187527
75357.708602	0.902968	201.464844	-8.203125
75357.710606	0.900370	9.904069	0.154916
75358.745075	0.613553	29.199219	-567.675781
75358.747077	0.882451	29.199219	-567.675781
75358.749077	0.902966	29.199219	-567.675781
75358.751077	0.900344	9.903785	0.201764
75359.785072	0.546610	207.128906	-5.664062
75359.787076	0.853013	207.128906	-5.664062
75359.789076	0.903487	207.128906	-5.664062
75359.791077	0.900580	9.906382	0.143666
75360.826002	0.641899	35.253906	-554.980469
75360.828005	0.891002	35.253906	-554.980469
75360.830003	0.902616	35.253906	-554.980469
75360.832004	0.900092	9.901011	0.320041
75361.857982	0.604589	210.546875	-6.445312
75361.859983	0.879456	210.546875	-6.445312
75361.863981	0.900516	210.546875	-6.445312
75361.865983	0.898896	9.887851	0.156564
75362.906882	0.660045	37.695312	-552.343750
75362.908883	0.895011	37.695312	-552.343750
75362.910883	0.902067	37.695312	-552.343750
75362.912883	0.899704	9.896749	0.403919
75363.937453	0.379232	207.421875	-12.011719
75363.941453	0.903883	207.421875	-12.011719
75363.943455	0.902465	207.421875	-12.011719
75363.945455	0.900258	9.902837	0.159371
75364.987441	0.623180	36.230469	-559.960937
75364.989441	0.885429	36.230469	-559.960937
75364.991443	0.886975	36.230469	-559.960937
75364.993441	0.900003	9.900037	0.251228
75366.017953	0.328545	210.253906	-15.136719
75366.019955	0.678671	210.253906	-15.136719
75366.021954	0.899480	210.253906	-15.136719
75366.023956	0.903227	210.253906	-15.136719
75366.025954	0.900886	9.909740	0.160815
75367.068014	0.591078	29.394531	-580.957031
75367.070016	0.873833	29.394531	-580.957031
75367.072018	0.876363	29.394531	-580.957031
75367.074017	0.899842	9.898264	0.183207
75368.100029	0.558408	213.574219	-17.382812
75368.102030	0.859229	213.574219	-17.382812
75368.104029	0.903555	213.574219	-17.382812
75368.106031	0.900706	9.907764	0.162269
75369.148098	0.471237	29.687500	-579.589844
75369.150099	0.804497	29.687500	-579.589844
75369.152100	0.904567	29.687500	-579.589844
75369.154098	0.901363	9.914996	0.170941
75370.180597	0.524363	217.968750	-18.750000
75370.182600	0.840191	217.968750	-18.750000
75370.186598	0.903363	217.968750	-18.750000
75370.188599	0.898808	9.886885	0.160615
75371.228628	0.429711	24.316406	-592.871094
75371.230631	0.771610	24.316406	-592.871094
75371.232631	0.905118	24.316406	-592.871094
75371.234633	0.902181	9.923991	0.162409
75372.262706	0.753667	218.847656	-19.824219
75372.264708	0.904321	218.847656	-19.824219
75372.266706	0.901711	9.918816	0.163995
75373.311142	0.731371	22.656250	-595.996094
75373.313142	0.903293	22.656250	-595.996094
75373.315143	0.901420	9.915616	0.159329
75374.343755	0.795613	219.042969	-20.214844
75374.345758	0.904718	219.042969	-20.214844
75374.347757	0.901615	9.917761	0.161549
75375.382185	0.465774	20.214844	-602.929687
75375.384187	0.800573	20.214844	-602.929687
75375.386186	0.904868	20.214844	-602.929687
75375.388186	0.901677	9.918444	0.183066
75376.422251	0.412033	223.925781	-18.945312
75376.424254	0.756392	223.925781	-18.945312
75376.426254	0.905574	223.925781	-18.945312
75376.428255	0.902979	9.932774	0.164715
75377.462286	0.349141	21.289062	-598.730469
75377.464291	0.370936	21.289062	-598.730469
75377.466289	0.704199	21.289062	-598.730469
75377.468290	0.902876	9.931640	0.180689
75378.504384	0.647067	222.851562	-19.335937
75378.506385	0.892428	222.851562	-19.335937
75378.508385	0.902638	222.851562	-19.335937
75378.510385	0.900094	9.901037	0.157211
75379.544440	0.591009	20.605469	-602.343750
75379.546441	0.874251	20.605469	-602.343750
75379.548441	0.903474	20.605469	-602.343750
75379.550441	0.900776	9.908535	0.180826
75380.576477	0.565023	229.882812	-15.917969
75380.578476	0.574148	229.882812	-15.917969
75380.580478	0.865539	229.882812	-15.917969
75380.582478	0.900297	9.903271	0.175615
75381.626965	0.854920	21.289062	-600.488281
75381.628965	0.903625	21.289062	-600.488281
75381.630966	0.900785	9.908632	0.175207
75382.656977	0.516295	228.515625	-14.257812
75382.658979	0.835487	228.515625	-14.257812
75382.660979	0.904264	228.515625	-14.257812
75382.662980	0.901155	9.912709	0.172181
75383.707960	0.872479	34.179687	-566.015625
75383.709961	0.903461	34.179687	-566.015625
75383.711967	0.900769	9.908456	0.175495
75384.739962	0.857210	222.460937	-14.257812
75384.741965	0.903493	222.460937	-14.257812
75384.743965	0.900574	9.906311	0.156793
75385.786533	0.551656	35.351562	-561.914062
75385.788537	0.855543	35.351562	-561.914062
75385.790537	0.858471	35.351562	-561.914062
75385.792536	0.900359	9.903954	0.178790
75386.819149	0.627842	219.921875	-11.914062
75386.821152	0.635871	219.921875	-11.914062
75386.823153	0.902528	219.921875	-11.914062
75386.825153	0.900010	9.900107	0.148697
75387.867636	0.612375	39.453125	-546.679687
75387.869638	0.882109	39.453125	-546.679687
75387.871638	0.902941	39.453125	-546.679687
75387.873638	0.900268	9.902943	0.184903
75388.899639	0.578869	210.058594	-12.988281
75388.901639	0.868822	210.058594	-12.988281
75388.903639	0.903107	210.058594	-12.988281
75388.905639	0.900397	9.904369	0.141779
75389.949659	0.812353	37.988281	-544.824219
75389.951660	0.903955	37.988281	-544.824219
75389.953659	0.900715	9.907862	0.174690
75390.984232	0.903346	207.128906	-12.207031
75390.986232	0.900424	207.128906	-12.207031
75390.988232	0.898808	9.886893	0.141767
75392.020255	0.486524	33.007812	-549.316406
75392.022257	0.815577	33.007812	-549.316406
75392.024256	0.904149	33.007812	-549.316406
75392.028255	0.899109	9.890199	0.195636
75393.060269	0.422182	208.496094	-10.351562
75393.062270	0.765182	208.496094	-10.351562
75393.064270	0.904604	208.496094	-10.351562
75393.066270	0.901698	9.918674	0.153841
75394.100298	0.357275	33.203125	-546.093750
75394.102300	0.705938	33.203125	-546.093750
75394.104300	0.902041	33.203125	-546.093750
75394.106300	0.901988	9.921873	0.185263
75395.142336	0.646313	213.378906	-8.496094
75395.144338	0.892335	213.378906	-8.496094
75395.146340	0.902834	213.378906	-8.496094
75395.148340	0.900319	9.903510	0.303692
75396.174409	0.627120	40.332031	-527.441406
75396.176411	0.887012	40.332031	-527.441406
75396.178412	0.902984	40.332031	-527.441406
75396.180411	0.900379	9.904165	0.269000
75397.221362	0.344738	219.140625	-5.859375
75397.223370	0.694022	219.140625	-5.859375
75397.225372	0.900977	219.140625	-5.859375
75397.227370	0.902061	219.140625	-5.859375
75397.229370	0.899729	9.897014	0.158311
75398.253894	0.404828	38.867187	-530.078125
75398.259895	0.901551	38.867187	-530.078125
75398.261896	0.899472	38.867187	-530.078125
75398.263897	0.898155	9.879706	0.193880
75399.303887	0.650731	222.070312	-6.152344
75399.305887	0.892962	222.070312	-6.152344
75399.307890	0.902213	222.070312	-6.152344
75399.309888	0.899739	9.897129	0.330984
75400.336816	0.773215	23.437500	-565.722656
75400.338819	0.904334	23.437500	-565.722656
75400.340824	0.901296	9.914260	0.177441
75401.382846	0.334846	224.023437	-6.054687
75401.384848	0.684574	224.023437	-6.054687
75401.386849	0.900319	224.023437	-6.054687
75401.388847	0.902992	224.023437	-6.054687
75401.390849	0.900590	9.906488	0.165975
75402.417744	0.667715	21.777344	-569.238281
75402.419746	0.904982	21.777344	-569.238281
75402.421745	0.901807	9.919879	0.172712
75403.463740	0.357340	223.828125	-6.933594
75403.465740	0.705901	223.828125	-6.933594
75403.467739	0.901884	223.828125	-6.933594
75403.469739	0.901907	9.920978	0.171181
75404.498653	0.814568	21.484375	-570.507812
75404.502654	0.900891	21.484375	-570.507812
75404.504655	0.899120	9.890323	0.166257
75405.544644	0.382408	220.605469	-8.593750
75405.546647	0.729478	220.605469	-8.593750
75405.548647	0.904256	220.605469	-8.593750
75405.550646	0.902680	9.929477	0.159252
75406.568650	0.383183	39.941406	-522.558594
75406.570652	0.730237	39.941406	-522.558594
75406.572651	0.903783	39.941406	-522.558594
75406.574652	0.902005	9.922059	0.200439
75407.626643	0.595051	219.531250	-8.984375
75407.628644	0.875795	219.531250	-8.984375
75407.630645	0.903213	219.531250	-8.984375
75407.632645	0.900496	9.905460	0.143915
75408.649202	0.345165	34.472656	-535.644531
75408.651211	0.694287	34.472656	-535.644531
75408.653214	0.902324	34.472656	-535.644531
75408.655214	0.903582	34.472656	-535.644531
75408.657216	0.901275	9.914030	0.205628
75409.699233	0.597859	219.335937	-8.300781
75409.701235	0.877023	219.335937	-8.300781
75409.703236	0.903430	219.335937	-8.300781
75409.705235	0.900780	9.908580	0.164158
75410.739256	0.535603	27.539062	-549.218750
75410.741258	0.846801	27.539062	-549.218750
75410.743260	0.903319	27.539062	-549.218750
75410.745258	0.900284	9.903130	0.170587
75411.779294	0.474656	214.355469	-10.742187
75411.781295	0.806921	214.355469	-10.742187
75411.783297	0.904139	214.355469	-10.742187
75411.785295	0.900998	9.910981	0.157187
75412.821301	0.754881	30.175781	-543.945312
75412.825301	0.901660	30.175781	-543.945312
75412.829301	0.898288	9.881168	0.181045
75413.861322	0.693068	218.750000	-8.984375
75413.863319	0.901293	218.750000	-8.984375
75413.865320	0.902640	218.750000	-8.984375
75413.867320	0.900290	9.903192	0.142181
